CTI3   

ORIGINATOR "Argyll dispread"
KEYWORD "USE_BLACK_POINT_COMPENSATION"
USE_BLACK_POINT_COMPENSATION "NO"
CREATED "Fri Sep 27 22:13:05 2013"
KEYWORD "TARGET_INSTRUMENT"
TARGET_INSTRUMENT "Xrite i1 DisplayPro, ColorMunki Display"
KEYWORD "DISPLAY_TYPE_REFRESH"
DISPLAY_TYPE_REFRESH "NO"
KEYWORD "COMP_GREY_STEPS"
COMP_GREY_STEPS "57"
KEYWORD "LUMINANCE_XYZ_CDM2"
LUMINANCE_XYZ_CDM2 "133.735403 140.756058 152.450127"
KEYWORD "VIDEO_LUT_CALIBRATION_POSSIBLE"
VIDEO_LUT_CALIBRATION_POSSIBLE "YES"
KEYWORD "SINGLE_DIM_STEPS"
SINGLE_DIM_STEPS "0"
DESCRIPTOR "Argyll Calibration Target chart information 3"

BEGIN_ARGYLL_COLPROF_ARGS
-v -qh -al -C "No copyright. Created with dispcalGUI 0.0.0.0 and Argyll CMS 1.6.0" -M "DELL U2713HM" -A "Dell"
END_ARGYLL_COLPROF_ARGS

KEYWORD "DEVICE_CLASS"
DEVICE_CLASS "DISPLAY"
KEYWORD "NORMALIZED_TO_Y_100"
NORMALIZED_TO_Y_100 "YES"
KEYWORD "DISPLAY_TYPE_BASE_ID"
DISPLAY_TYPE_BASE_ID "1"
KEYWORD "INSTRUMENT_TYPE_SPECTRAL"
INSTRUMENT_TYPE_SPECTRAL "NO"
KEYWORD "COLOR_REP"
COLOR_REP "RGB_XYZ"

NUMBER_OF_FIELDS 7
BEGIN_DATA_FORMAT
SAMPLE_ID RGB_R RGB_G RGB_B XYZ_X XYZ_Y XYZ_Z
END_DATA_FORMAT

NUMBER_OF_SETS 912
BEGIN_DATA
1 100.0000 100.0000 100.0000 95.01220 100.0000 108.3080
2 100.0000 100.0000 100.0000 95.01220 100.0000 108.3080
3 100.0000 100.0000 100.0000 95.01220 100.0000 108.3080
4 100.0000 100.0000 100.0000 95.01220 100.0000 108.3080
5 0.000000 0.000000 0.000000 0.117426 0.124480 0.193950
6 1.785700 1.785700 1.785700 0.175557 0.183877 0.255281
7 3.571400 3.571400 3.571400 0.265306 0.284610 0.360616
8 5.357100 5.357100 5.357100 0.444770 0.464978 0.547468
9 7.142900 7.142900 7.142900 0.631541 0.672355 0.734481
10 8.928600 8.928600 8.928600 0.893103 0.950885 1.071090
11 10.71400 10.71400 10.71400 1.109540 1.174300 1.315080
12 12.50000 12.50000 12.50000 1.426510 1.510990 1.702060
13 14.28600 14.28600 14.28600 1.736040 1.836400 2.068100
14 16.07100 16.07100 16.07100 2.129920 2.259420 2.484800
15 17.85700 17.85700 17.85700 2.623000 2.793470 3.015330
16 19.64300 19.64300 19.64300 2.970960 3.162020 3.412460
17 21.42900 21.42900 21.42900 3.587640 3.787480 4.139040
18 23.21400 23.21400 23.21400 4.075450 4.273320 4.650770
19 25.00000 25.00000 25.00000 4.794880 5.070400 5.538370
20 26.78600 26.78600 26.78600 5.362960 5.590330 6.138060
21 28.57100 28.57100 28.57100 6.194980 6.521640 7.217880
22 30.35700 30.35700 30.35700 6.932280 7.354990 7.919990
23 32.14300 32.14300 32.14300 7.842000 8.243950 8.821990
24 33.92900 33.92900 33.92900 8.757720 9.233870 10.09800
25 35.71400 35.71400 35.71400 9.705950 10.28300 10.96320
26 37.50000 37.50000 37.50000 10.81910 11.45460 12.46910
27 39.28600 39.28600 39.28600 11.89180 12.50140 13.45560
28 41.07100 41.07100 41.07100 13.39670 14.11330 15.14730
29 42.85700 42.85700 42.85700 14.33810 15.12720 16.19470
30 44.64300 44.64300 44.64300 15.91360 16.71190 18.04020
31 46.42900 46.42900 46.42900 17.15130 18.11720 19.39840
32 48.21400 48.21400 48.21400 18.57150 19.70450 20.98420
33 50.00000 50.00000 50.00000 20.24340 21.36570 22.87790
34 51.78600 51.78600 51.78600 21.76910 22.89740 24.60130
35 53.57100 53.57100 53.57100 23.35920 24.66630 26.35510
36 55.35700 55.35700 55.35700 24.94420 26.43500 28.08490
37 57.14300 57.14300 57.14300 26.96880 28.40840 30.48890
38 58.92900 58.92900 58.92900 28.68640 30.24740 31.96370
39 60.71400 60.71400 60.71400 30.74970 32.51600 34.63700
40 62.50000 62.50000 62.50000 32.62150 34.27890 36.77350
41 64.28600 64.28600 64.28600 34.83580 36.88290 39.18490
42 66.07100 66.07100 66.07100 36.71540 38.54310 41.58550
43 67.85700 67.85700 67.85700 39.42540 41.42700 44.52870
44 69.64300 69.64300 69.64300 41.71580 43.97460 46.93890
45 71.42900 71.42900 71.42900 43.78510 46.26540 49.34700
46 73.21400 73.21400 73.21400 46.52930 49.17240 52.15750
47 75.00000 75.00000 75.00000 48.58190 51.14660 54.69410
48 76.78600 76.78600 76.78600 51.38610 54.00400 57.90190
49 78.57100 78.57100 78.57100 54.11840 57.02830 61.37780
50 80.35700 80.35700 80.35700 57.03090 59.94040 64.98390
51 82.14300 82.14300 82.14300 59.57200 62.62070 68.05810
52 83.92900 83.92900 83.92900 63.20440 66.62820 72.20570
53 85.71400 85.71400 85.71400 66.65920 70.04950 75.81540
54 87.50000 87.50000 87.50000 69.34110 72.93250 78.62600
55 89.28600 89.28600 89.28600 72.89100 76.81250 82.90510
56 91.07100 91.07100 91.07100 75.47020 79.46450 85.97870
57 92.85700 92.85700 92.85700 78.81900 83.02960 89.98920
58 94.64300 94.64300 94.64300 82.34240 86.65880 93.46870
59 96.42900 96.42900 96.42900 86.80380 91.20630 98.68050
60 98.21400 98.21400 98.21400 90.73950 95.56120 103.7600
61 0.000000 0.000000 14.28570 0.420411 0.222888 1.907440
62 0.000000 0.000000 28.57140 1.253780 0.494922 6.620020
63 0.000000 0.000000 42.85710 2.699700 0.967662 14.79500
64 0.000000 0.000000 57.14290 5.009800 1.726800 27.86840
65 0.000000 0.000000 71.42860 8.062510 2.720750 45.11960
66 0.000000 0.000000 85.71430 12.35650 4.116930 69.40390
67 0.000000 0.000000 100.0000 17.60060 5.757950 98.99540
68 0.000000 14.28570 0.000000 0.712595 1.378680 0.341503
69 0.000000 14.28570 14.28570 1.016210 1.477690 2.056880
70 0.000000 14.28570 28.57140 1.850020 1.750180 6.772700
71 0.000000 14.28570 42.85710 3.297580 2.223030 14.95330
72 0.000000 14.28570 57.14290 5.604400 2.982370 28.01470
73 0.000000 14.28570 71.42860 8.658080 3.975860 45.26580
74 0.000000 14.28570 85.71430 12.95320 5.372780 69.55010
75 0.000000 14.28570 100.0000 18.19900 7.017390 99.14160
76 0.000000 28.57140 0.000000 2.331420 4.790220 0.745593
77 0.000000 28.57140 14.28570 2.637670 4.892200 2.460800
78 0.000000 28.57140 28.57140 3.471050 5.163410 7.172900
79 0.000000 28.57140 42.85710 4.917210 5.636940 15.34980
80 0.000000 28.57140 57.14290 7.232650 6.394440 28.44950
81 0.000000 28.57140 71.42860 10.28670 7.392080 45.70070
82 0.000000 28.57140 85.71430 14.57590 8.785620 69.98500
83 0.000000 28.57140 100.0000 19.83540 10.43740 99.57650
84 0.000000 42.85710 0.000000 5.311740 11.07880 1.491660
85 0.000000 42.85710 14.28570 5.598360 11.14650 3.206680
86 0.000000 42.85710 28.57140 6.452340 11.42290 7.916470
87 0.000000 42.85710 42.85710 7.873220 11.91550 16.09310
88 0.000000 42.85710 57.14290 10.16650 12.63360 29.18040
89 0.000000 42.85710 71.42860 13.26050 13.64850 46.43160
90 0.000000 42.85710 85.71430 17.54760 15.06810 70.71620
91 0.000000 42.85710 100.0000 22.79100 16.71580 100.3080
92 0.000000 57.14290 0.000000 9.876740 20.69390 2.635450
93 0.000000 57.14290 14.28570 10.18730 20.81380 4.350030
94 0.000000 57.14290 28.57140 11.04050 21.09020 9.056170
95 0.000000 57.14290 42.85710 12.49810 21.55450 17.22600
96 0.000000 57.14290 57.14290 14.76020 22.30100 30.34610
97 0.000000 57.14290 71.42860 17.82620 23.31510 47.46470
98 0.000000 57.14290 85.71430 22.17930 24.70730 71.88140
99 0.000000 57.14290 100.0000 27.35660 26.38240 101.3410
100 0.000000 71.42860 0.000000 16.10210 33.83680 4.194260
101 0.000000 71.42860 14.28570 16.41290 33.95670 5.909870
102 0.000000 71.42860 28.57140 17.26660 34.23320 10.61850
103 0.000000 71.42860 42.85710 18.72440 34.69740 18.78910
104 0.000000 71.42860 57.14290 21.00450 35.41510 31.81430
105 0.000000 71.42860 71.42860 24.09850 36.43010 49.06550
106 0.000000 71.42860 85.71430 28.32340 37.82570 73.35020
107 0.000000 71.42860 100.0000 33.62900 39.49730 102.9420
108 0.000000 85.71430 0.000000 24.26940 51.08220 6.249750
109 0.000000 85.71430 14.28570 24.61850 51.17390 7.965740
110 0.000000 85.71430 28.57140 25.47250 51.45030 12.67570
111 0.000000 85.71430 42.85710 26.89080 51.94280 20.84040
112 0.000000 85.71430 57.14290 29.19750 52.66130 33.99060
113 0.000000 85.71430 71.42860 32.26340 53.67540 51.10920
114 0.000000 85.71430 85.71430 36.52630 55.04270 75.39330
115 0.000000 85.71430 100.0000 41.83190 56.71440 104.9850
116 0.000000 100.0000 0.000000 34.60800 72.98110 8.928990
117 0.000000 100.0000 14.28570 34.91940 73.10100 10.64740
118 0.000000 100.0000 28.57140 35.71370 73.35360 15.36920
119 0.000000 100.0000 42.85710 37.17230 73.81780 23.54390
120 0.000000 100.0000 57.14290 39.48650 74.58810 36.61610
121 0.000000 100.0000 71.42860 42.55630 75.55080 53.86680
122 0.000000 100.0000 85.71430 46.88140 76.94210 78.15080
123 0.000000 100.0000 100.0000 52.09680 78.58900 107.6100
124 7.142860 7.142860 21.42860 1.183100 0.851735 3.849920
125 7.142860 7.142860 35.71430 2.282510 1.211290 10.06730
126 7.142860 7.142860 50.00000 4.197530 1.836450 20.93440
127 7.142860 7.142860 64.28570 6.837020 2.704920 35.83510
128 7.142860 7.142860 78.57140 10.43090 3.871780 56.13830
129 7.142860 7.142860 92.85710 15.08160 5.368940 82.41290
130 7.142860 21.42860 7.142860 1.713200 2.950340 1.003160
131 7.142860 21.42860 21.42860 2.267660 3.127240 4.119880
132 7.142860 21.42860 35.71430 3.366260 3.491030 10.34540
133 7.142860 21.42860 50.00000 5.284520 4.116730 21.20330
134 7.142860 21.42860 64.28570 7.923870 4.984280 36.12500
135 7.142860 21.42860 78.57140 11.50460 6.148750 56.42830
136 7.142860 21.42860 92.85710 16.15340 7.644120 82.70290
137 7.142860 35.71430 7.142860 3.973470 7.706830 1.566220
138 7.142860 35.71430 21.42860 4.526400 7.891310 4.686170
139 7.142860 35.71430 35.71430 5.610990 8.237630 10.88940
140 7.142860 35.71430 50.00000 7.546070 8.871500 21.77760
141 7.142860 35.71430 64.28570 10.20300 9.729870 36.70680
142 7.142860 35.71430 78.57140 13.81620 10.88010 57.00970
143 7.142860 35.71430 92.85710 18.44240 12.40990 83.28490
144 7.142860 50.00000 7.142860 7.794500 15.77850 2.525470
145 7.142860 50.00000 21.42860 8.364310 15.93590 5.645350
146 7.142860 50.00000 35.71430 9.423660 16.30700 11.86660
147 7.142860 50.00000 50.00000 11.36500 16.92590 22.74970
148 7.142860 50.00000 64.28570 14.06730 17.78900 37.72230
149 7.142860 50.00000 78.57140 17.58830 18.96430 57.89330
150 7.142860 50.00000 92.85710 22.22020 20.45330 84.16800
151 7.142860 64.28570 7.142860 13.22130 27.16960 3.879370
152 7.142860 64.28570 21.42860 13.81470 27.37910 6.997070
153 7.142860 64.28570 35.71430 14.91070 27.72190 13.21090
154 7.142860 64.28570 50.00000 16.78580 28.31670 24.07520
155 7.142860 64.28570 64.28570 19.44820 29.20800 39.03990
156 7.142860 64.28570 78.57140 23.00730 30.35500 59.21030
157 7.142860 64.28570 92.85710 27.66340 31.89630 85.48550
158 7.142860 78.57140 7.142860 20.15740 41.77500 5.616130
159 7.142860 78.57140 21.42860 20.75070 41.98460 8.733430
160 7.142860 78.57140 35.71430 21.84810 42.32740 14.95400
161 7.142860 78.57140 50.00000 23.78650 42.94620 25.82300
162 7.142860 78.57140 64.28570 26.38710 43.81360 40.78960
163 7.142860 78.57140 78.57140 29.94620 44.96060 60.96000
164 7.142860 78.57140 92.85710 34.64030 46.47360 87.23460
165 7.142860 92.85710 7.142860 29.12680 60.77250 7.893140
166 7.142860 92.85710 21.42860 29.72170 60.98200 11.01780
167 7.142860 92.85710 35.71430 30.81920 61.32490 17.23910
168 7.142860 92.85710 50.00000 32.67030 61.91900 27.98960
169 7.142860 92.85710 64.28570 35.37730 62.78220 42.98450
170 7.142860 92.85710 78.57140 38.96440 63.93010 63.28760
171 7.142860 92.85710 92.85710 43.53020 65.44660 89.43020
172 14.28570 0.000000 0.000000 0.836567 0.482236 0.202390
173 14.28570 0.000000 14.28570 1.140110 0.580447 1.916990
174 14.28570 0.000000 28.57140 1.973800 0.853151 6.631430
175 14.28570 0.000000 42.85710 3.419700 1.325920 14.80520
176 14.28570 0.000000 57.14290 5.727890 2.085060 27.86900
177 14.28570 0.000000 71.42860 8.781170 3.077830 45.12020
178 14.28570 0.000000 85.71430 13.07730 4.472740 69.40440
179 14.28570 0.000000 100.0000 18.32410 6.113870 98.99590
180 14.28570 14.28570 0.000000 1.433300 1.734600 0.350446
181 14.28570 14.28570 28.57140 2.571160 2.109300 6.784790
182 14.28570 14.28570 42.85710 4.018210 2.581980 14.96320
183 14.28570 14.28570 57.14290 6.323270 3.341000 28.01530
184 14.28570 14.28570 71.42860 9.376980 4.334330 45.26640
185 14.28570 14.28570 85.71430 13.67430 5.731350 69.55070
186 14.28570 14.28570 100.0000 18.92090 7.375060 99.14220
187 14.28570 28.57140 0.000000 3.052710 5.148160 0.754508
188 14.28570 28.57140 14.28570 3.356910 5.251350 2.471260
189 14.28570 28.57140 28.57140 4.193650 5.524670 7.187410
190 14.28570 28.57140 42.85710 5.639560 5.997570 15.36430
191 14.28570 28.57140 57.14290 7.950830 6.755880 28.45010
192 14.28570 28.57140 71.42860 11.01640 7.747710 45.70120
193 14.28570 28.57140 85.71430 15.30450 9.148940 69.98560
194 14.28570 28.57140 100.0000 20.52760 10.79970 99.44460
195 14.28570 42.85710 0.000000 6.021850 11.39450 1.499830
196 14.28570 42.85710 14.28570 6.332880 11.51450 3.216590
197 14.28570 42.85710 28.57140 7.187610 11.79090 7.929900
198 14.28570 42.85710 42.85710 8.607540 12.28340 16.10210
199 14.28570 42.85710 57.14290 10.96130 13.02550 29.18100
200 14.28570 42.85710 71.42860 13.99310 14.01640 46.43220
201 14.28570 42.85710 85.71430 18.28020 15.43600 70.71690
202 14.28570 42.85710 100.0000 23.52350 17.08370 100.3080
203 14.28570 57.14290 0.000000 10.61080 21.06180 2.643030
204 14.28570 57.14290 14.28570 10.92190 21.18180 4.360440
205 14.28570 57.14290 28.57140 11.77660 21.45820 9.073370
206 14.28570 57.14290 42.85710 13.23430 21.92250 17.24390
207 14.28570 57.14290 57.14290 15.49280 22.66890 30.34670
208 14.28570 57.14290 71.42860 18.58680 23.68390 47.59790
209 14.28570 57.14290 85.71430 22.84970 25.05120 71.88200
210 14.28570 57.14290 100.0000 28.08920 26.75030 101.3420
211 14.28570 71.42860 0.000000 16.87090 34.17640 4.185680
212 14.28570 71.42860 14.28570 17.18530 34.29640 5.918380
213 14.28570 71.42860 28.57140 17.97820 34.54900 10.63370
214 14.28570 71.42860 42.85710 19.39810 35.04150 18.80570
215 14.28570 71.42860 57.14290 21.76520 35.78390 31.94750
216 14.28570 71.42860 71.42860 24.76890 36.77400 49.06610
217 14.28570 71.42860 85.71430 29.05600 38.19360 73.35080
218 14.28570 71.42860 100.0000 34.36160 39.86520 102.9420
219 14.28570 85.71430 0.000000 25.04120 51.42190 6.255440
220 14.28570 85.71430 14.28570 25.35270 51.54180 7.974430
221 14.28570 85.71430 28.57140 26.14600 51.79440 12.69100
222 14.28570 85.71430 42.85710 27.60280 52.25860 20.85700
223 14.28570 85.71430 57.14290 29.93000 53.02920 33.99120
224 14.28570 85.71430 71.42860 32.93380 54.01930 51.10990
225 14.28570 85.71430 85.71430 37.25890 55.41070 75.39390
226 14.28570 85.71430 100.0000 42.50230 57.05840 104.9850
227 14.28570 100.0000 0.000000 35.34180 73.34900 8.935400
228 14.28570 100.0000 14.28570 35.62980 73.41680 10.65720
229 14.28570 100.0000 28.57140 36.48750 73.69330 15.38430
230 14.28570 100.0000 42.85710 37.90950 74.18590 23.56630
231 14.28570 100.0000 57.14290 40.25710 74.92770 36.61620
232 14.28570 100.0000 71.42860 43.28890 75.91870 53.86740
233 14.28570 100.0000 85.71430 47.55180 77.28610 78.15150
234 14.28570 100.0000 100.0000 52.76710 78.93290 107.6100
235 21.42860 7.142860 7.142860 1.956590 1.331660 0.750331
236 21.42860 7.142860 21.42860 2.507090 1.511150 3.867320
237 21.42860 7.142860 35.71430 3.609420 1.871630 10.09280
238 21.42860 7.142860 50.00000 5.530280 2.499530 20.96080
239 21.42860 7.142860 64.28570 8.158800 3.365250 35.83610
240 21.42860 7.142860 78.57140 11.75390 4.533280 56.13940
241 21.42860 7.142860 92.85710 16.40770 6.028370 82.41400
242 21.42860 21.42860 7.142860 3.036850 3.608190 1.019890
243 21.42860 21.42860 35.71430 4.690960 4.149760 10.36270
244 21.42860 21.42860 50.00000 6.607340 4.772970 21.22350
245 21.42860 21.42860 64.28570 9.242300 5.640090 36.12600
246 21.42860 21.42860 78.57140 12.84020 6.813010 56.42930
247 21.42860 21.42860 92.85710 17.49060 8.307300 82.70390
248 21.42860 35.71430 7.142860 5.298120 8.367420 1.583960
249 21.42860 35.71430 21.42860 5.849410 8.548330 4.701330
250 21.42860 35.71430 35.71430 6.948730 8.906160 10.92220
251 21.42860 35.71430 50.00000 8.866620 9.527060 21.78750
252 21.42860 35.71430 64.28570 11.50480 10.39510 36.70800
253 21.42860 35.71430 78.57140 15.12520 11.55580 57.01100
254 21.42860 35.71430 92.85710 19.74810 13.04140 83.28570
255 21.42860 50.00000 7.142860 9.114140 16.41440 2.540860
256 21.42860 50.00000 21.42860 9.644810 16.59990 5.656200
257 21.42860 50.00000 35.71430 10.74300 16.94280 11.88050
258 21.42860 50.00000 50.00000 12.68130 17.56160 22.74940
259 21.42860 50.00000 64.28570 15.34580 18.45300 37.72370
260 21.42860 50.00000 78.57140 18.90490 19.60000 57.89410
261 21.42860 50.00000 92.85710 23.59900 21.11300 84.16870
262 21.42860 64.28570 7.142860 14.56530 27.85760 3.896220
263 21.42860 64.28570 21.42860 15.13440 28.01490 7.012480
264 21.42860 64.28570 35.71430 16.19400 28.38600 13.23520
265 21.42860 64.28570 50.00000 18.13120 29.00480 24.09860
266 21.42860 64.28570 64.28570 20.76480 29.84370 39.04060
267 21.42860 64.28570 78.57140 24.37610 31.04380 59.34420
268 21.42860 64.28570 92.85710 28.97990 32.53200 85.48620
269 21.42860 78.57140 7.142860 21.50140 42.46310 5.633070
270 21.42860 78.57140 21.42860 22.06980 42.62040 8.746350
271 21.42860 78.57140 35.71430 23.13120 42.99150 14.97690
272 21.42860 78.57140 50.00000 25.06800 43.61030 25.83890
273 21.42860 78.57140 64.28570 27.70360 44.44930 40.79040
274 21.42860 78.57140 78.57140 31.28690 45.64850 60.96140
275 21.42860 78.57140 92.85710 35.91880 47.13760 87.23600
276 21.42860 92.85710 7.142860 30.47130 61.46050 7.912530
277 21.42860 92.85710 21.42860 31.04150 61.61790 11.03420
278 21.42860 92.85710 35.71430 32.14050 61.96070 17.26230
279 21.42860 92.85710 50.00000 34.03910 62.60780 28.12350
280 21.42860 92.85710 64.28570 36.71800 63.47010 42.98590
281 21.42860 92.85710 78.57140 40.30520 64.61800 63.28890
282 21.42860 92.85710 92.85710 44.93700 66.10710 89.56350
283 28.57140 0.000000 0.000000 2.837730 1.478460 0.228083
284 28.57140 0.000000 14.28570 3.141300 1.577240 1.943750
285 28.57140 0.000000 28.57140 3.973270 1.849370 6.646720
286 28.57140 0.000000 42.85710 5.416960 2.320580 14.83320
287 28.57140 0.000000 57.14290 7.722640 3.080830 27.87060
288 28.57140 0.000000 71.42860 10.77710 4.074440 45.12180
289 28.57140 0.000000 85.71430 15.07320 5.469730 69.40610
290 28.57140 0.000000 100.0000 20.32600 7.114140 98.99750
291 28.57140 14.28570 0.000000 3.431420 2.732030 0.376328
292 28.57140 14.28570 14.28570 3.740940 2.834560 2.093060
293 28.57140 14.28570 28.57140 4.575480 3.107240 6.810430
294 28.57140 14.28570 42.85710 6.022180 3.580420 14.98840
295 28.57140 14.28570 57.14290 8.349500 4.340230 28.14950
296 28.57140 14.28570 71.42860 11.37730 5.333960 45.26800
297 28.57140 14.28570 85.71430 15.66880 6.727150 69.55230
298 28.57140 14.28570 100.0000 20.92720 8.377080 99.14380
299 28.57140 28.57140 0.000000 5.052980 6.143230 0.780044
300 28.57140 28.57140 14.28570 5.357730 6.247550 2.497710
301 28.57140 28.57140 42.85710 7.641620 6.992990 15.39110
302 28.57140 28.57140 57.14290 9.949320 7.752480 28.45170
303 28.57140 28.57140 71.42860 13.00600 8.749100 45.70290
304 28.57140 28.57140 85.71430 17.31160 10.13730 69.98700
305 28.57140 28.57140 100.0000 22.56940 11.79050 99.57860
306 28.57140 42.85710 0.000000 8.037960 12.42660 1.525690
307 28.57140 42.85710 14.28570 8.324970 12.49430 3.242560
308 28.57140 42.85710 28.57140 9.141850 12.79900 7.957400
309 28.57140 42.85710 42.85710 10.60000 13.26330 16.13000
310 28.57140 42.85710 57.14290 12.91020 14.03340 29.18300
311 28.57140 42.85710 71.42860 15.94200 15.02440 46.43430
312 28.57140 42.85710 85.71430 20.26710 16.41570 70.71830
313 28.57140 42.85710 100.0000 25.57270 18.08730 100.3100
314 28.57140 57.14290 0.000000 12.60310 22.04170 2.670060
315 28.57140 57.14290 14.28570 12.91430 22.16160 4.387660
316 28.57140 57.14290 28.57140 13.76920 22.43810 9.101880
317 28.57140 57.14290 42.85710 15.19110 22.93070 17.28320
318 28.57140 57.14290 57.14290 17.54190 23.67260 30.34810
319 28.57140 57.14290 71.42860 20.57370 24.66360 47.59940
320 28.57140 57.14290 85.71430 24.86080 26.08310 71.88400
321 28.57140 57.14290 100.0000 30.16630 27.75480 101.4760
322 28.57140 71.42860 0.000000 18.82830 35.18460 4.228400
323 28.57140 71.42860 14.28570 19.13980 35.30450 5.947560
324 28.57140 71.42860 28.57140 19.99520 35.58100 10.66370
325 28.57140 71.42860 42.85710 21.45400 36.04530 18.83910
326 28.57140 71.42860 57.14290 23.77620 36.81580 31.94950
