CTI3   

ORIGINATOR "Argyll dispread"
KEYWORD "USE_BLACK_POINT_COMPENSATION"
USE_BLACK_POINT_COMPENSATION "NO"
CREATED "Sat Sep 28 15:14:53 2013"
KEYWORD "TARGET_INSTRUMENT"
TARGET_INSTRUMENT "Xrite i1 DisplayPro, ColorMunki Display"
KEYWORD "DISPLAY_TYPE_REFRESH"
DISPLAY_TYPE_REFRESH "NO"
KEYWORD "COMP_GREY_STEPS"
COMP_GREY_STEPS "57"
KEYWORD "LUMINANCE_XYZ_CDM2"
LUMINANCE_XYZ_CDM2 "132.008286 139.250691 150.870368"
KEYWORD "VIDEO_LUT_CALIBRATION_POSSIBLE"
VIDEO_LUT_CALIBRATION_POSSIBLE "YES"
KEYWORD "SINGLE_DIM_STEPS"
SINGLE_DIM_STEPS "0"
DESCRIPTOR "Argyll Calibration Target chart information 3"

BEGIN_ARGYLL_COLPROF_ARGS
-v -qh -al -C "No copyright. Created with dispcalGUI 0.0.0.0 and Argyll CMS 1.6.0" -M "DELL 2407WFP" -A "Dell"
END_ARGYLL_COLPROF_ARGS

KEYWORD "DEVICE_CLASS"
DEVICE_CLASS "DISPLAY"
KEYWORD "NORMALIZED_TO_Y_100"
NORMALIZED_TO_Y_100 "YES"
KEYWORD "DISPLAY_TYPE_BASE_ID"
DISPLAY_TYPE_BASE_ID "1"
KEYWORD "INSTRUMENT_TYPE_SPECTRAL"
INSTRUMENT_TYPE_SPECTRAL "NO"
KEYWORD "COLOR_REP"
COLOR_REP "RGB_XYZ"

NUMBER_OF_FIELDS 7
BEGIN_DATA_FORMAT
SAMPLE_ID RGB_R RGB_G RGB_B XYZ_X XYZ_Y XYZ_Z
END_DATA_FORMAT

NUMBER_OF_SETS 912
BEGIN_DATA
1 100.0000 100.0000 100.0000 94.79900 100.0000 108.3440
2 100.0000 100.0000 100.0000 94.40470 99.60880 108.0700
3 100.0000 100.0000 100.0000 94.62890 99.86850 108.0720
4 100.0000 100.0000 100.0000 94.90570 100.0330 109.0220
5 0.000000 0.000000 0.000000 0.186055 0.172605 0.187054
6 1.785700 1.785700 1.785700 0.261184 0.255624 0.284262
7 3.571400 3.571400 3.571400 0.345722 0.341489 0.391374
8 5.357100 5.357100 5.357100 0.518225 0.523129 0.576970
9 7.142900 7.142900 7.142900 0.665912 0.685507 0.773876
10 8.928600 8.928600 8.928600 0.953624 1.000500 1.035780
11 10.71400 10.71400 10.71400 1.157610 1.203590 1.316850
12 12.50000 12.50000 12.50000 1.514350 1.576030 1.673900
13 14.28600 14.28600 14.28600 1.842180 1.919060 2.099160
14 16.07100 16.07100 16.07100 2.226370 2.321580 2.571540
15 17.85700 17.85700 17.85700 2.685780 2.794980 3.198640
16 19.64300 19.64300 19.64300 3.201250 3.327030 3.702130
17 21.42900 21.42900 21.42900 3.765630 3.919680 4.246200
18 23.21400 23.21400 23.21400 4.235910 4.381650 4.874450
19 25.00000 25.00000 25.00000 4.928800 5.211210 5.490150
20 26.78600 26.78600 26.78600 5.491380 5.770490 6.192990
21 28.57100 28.57100 28.57100 6.385400 6.662190 7.321410
22 30.35700 30.35700 30.35700 7.119650 7.530170 8.209210
23 32.14300 32.14300 32.14300 8.026380 8.496110 9.248490
24 33.92900 33.92900 33.92900 8.976170 9.541300 10.43170
25 35.71400 35.71400 35.71400 9.802520 10.31980 11.12740
26 37.50000 37.50000 37.50000 11.21660 11.81100 12.75830
27 39.28600 39.28600 39.28600 12.04500 12.62460 13.67310
28 41.07100 41.07100 41.07100 13.32710 14.12950 15.21930
29 42.85700 42.85700 42.85700 14.45960 15.15290 16.62300
30 44.64300 44.64300 44.64300 15.84800 16.73520 18.25750
31 46.42900 46.42900 46.42900 17.46840 18.22680 19.96530
32 48.21400 48.21400 48.21400 18.84920 19.91330 21.33540
33 50.00000 50.00000 50.00000 20.52600 21.54080 23.25660
34 51.78600 51.78600 51.78600 21.71420 22.64790 24.98580
35 53.57100 53.57100 53.57100 23.36230 24.57310 26.85330
36 55.35700 55.35700 55.35700 24.90720 26.17450 28.45230
37 57.14300 57.14300 57.14300 26.92610 28.39370 31.18610
38 58.92900 58.92900 58.92900 28.47110 30.02510 32.96440
39 60.71400 60.71400 60.71400 30.51570 31.99080 35.15090
40 62.50000 62.50000 62.50000 32.45930 33.96140 37.33850
41 64.28600 64.28600 64.28600 34.38690 36.22990 39.53180
42 66.07100 66.07100 66.07100 36.85310 38.87830 41.72720
43 67.85700 67.85700 67.85700 38.91450 41.01660 44.59460
44 69.64300 69.64300 69.64300 41.33990 43.45520 47.05750
45 71.42900 71.42900 71.42900 43.52460 45.85790 49.92870
46 73.21400 73.21400 73.21400 46.62360 49.09100 53.34910
47 75.00000 75.00000 75.00000 48.85810 51.21890 56.07910
48 76.78600 76.78600 76.78600 51.72790 54.17010 59.76740
49 78.57100 78.57100 78.57100 54.04810 56.66550 62.09690
50 80.35700 80.35700 80.35700 56.53100 59.48640 64.97320
51 82.14300 82.14300 82.14300 59.48890 62.58880 68.25690
52 83.92900 83.92900 83.92900 62.34590 65.69600 71.54160
53 85.71400 85.71400 85.71400 65.61070 69.11270 75.09950
54 87.50000 87.50000 87.50000 69.03580 72.61630 79.47070
55 89.28600 89.28600 89.28600 72.29630 76.08490 82.89400
56 91.07100 91.07100 91.07100 75.66030 79.78740 86.04970
57 92.85700 92.85700 92.85700 79.10140 83.44780 90.15270
58 94.64300 94.64300 94.64300 82.63560 87.28190 93.58030
59 96.42900 96.42900 96.42900 87.02020 91.71500 99.72210
60 98.21400 98.21400 98.21400 89.68610 94.51140 103.2740
61 0.000000 0.000000 14.28570 0.494350 0.331289 1.869690
62 0.000000 0.000000 28.57140 1.335590 0.771582 6.465880
63 0.000000 0.000000 42.85710 2.856480 1.582100 14.78410
64 0.000000 0.000000 57.14290 5.206360 2.886500 27.65790
65 0.000000 0.000000 71.42860 8.408780 4.662300 45.14740
66 0.000000 0.000000 85.71430 12.63290 7.101580 68.19740
67 0.000000 0.000000 100.0000 17.96190 10.44490 97.35380
68 0.000000 14.28570 0.000000 0.731324 1.331700 0.366753
69 0.000000 14.28570 14.28570 1.040710 1.486010 2.085920
70 0.000000 14.28570 28.57140 1.900110 1.941570 6.753700
71 0.000000 14.28570 42.85710 3.427700 2.752550 15.10640
72 0.000000 14.28570 57.14290 5.795510 4.058690 28.08110
73 0.000000 14.28570 71.42860 9.000900 5.822720 45.57030
74 0.000000 14.28570 85.71430 13.06360 8.281230 67.94450
75 0.000000 14.28570 100.0000 18.54430 11.60300 97.64130
76 0.000000 28.57140 0.000000 2.174180 4.407250 0.836130
77 0.000000 28.57140 14.28570 2.489990 4.560570 2.568730
78 0.000000 28.57140 28.57140 3.356120 5.033020 7.265630
79 0.000000 28.57140 42.85710 4.859250 5.806220 15.57160
80 0.000000 28.57140 57.14290 7.238200 7.128710 28.53210
81 0.000000 28.57140 71.42860 10.45180 8.896170 46.02130
82 0.000000 28.57140 85.71430 14.62340 11.35530 68.93670
83 0.000000 28.57140 100.0000 19.98520 14.73020 98.09340
84 0.000000 42.85710 0.000000 4.841020 10.05030 1.686790
85 0.000000 42.85710 14.28570 5.134110 10.17860 3.420600
86 0.000000 42.85710 28.57140 6.030220 10.61320 8.104390
87 0.000000 42.85710 42.85710 7.542360 11.42550 16.53640
88 0.000000 42.85710 57.14290 9.866710 12.69080 29.42570
89 0.000000 42.85710 71.42860 13.00580 14.47320 46.50920
90 0.000000 42.85710 85.71430 17.21440 16.90050 69.69470
91 0.000000 42.85710 100.0000 22.57780 20.26580 98.98680
92 0.000000 57.14290 0.000000 9.019120 18.88460 2.998670
93 0.000000 57.14290 14.28570 9.281020 18.98240 4.759610
94 0.000000 57.14290 28.57140 10.18370 19.45020 9.479430
95 0.000000 57.14290 42.85710 11.74550 20.32620 17.89550
96 0.000000 57.14290 57.14290 14.09660 21.59220 30.90940
97 0.000000 57.14290 71.42860 17.15730 23.26810 47.85610
98 0.000000 57.14290 85.71430 21.31300 25.71590 70.50020
99 0.000000 57.14290 100.0000 26.80280 29.14500 100.7410
100 0.000000 71.42860 0.000000 14.51220 30.43080 4.662900
101 0.000000 71.42860 14.28570 14.83940 30.55270 6.434980
102 0.000000 71.42860 28.57140 15.70630 31.04940 11.16670
103 0.000000 71.42860 42.85710 17.24610 31.87260 19.59450
104 0.000000 71.42860 57.14290 19.50990 33.03170 32.42980
105 0.000000 71.42860 71.42860 22.64900 34.81420 49.51330
106 0.000000 71.42860 85.71430 26.96490 37.34900 72.97090
107 0.000000 71.42860 100.0000 32.19640 40.55390 101.9900
108 0.000000 85.71430 0.000000 21.82620 45.68110 6.823840
109 0.000000 85.71430 14.28570 22.10000 45.77930 8.640440
110 0.000000 85.71430 28.57140 22.96800 46.27600 13.37740
111 0.000000 85.71430 42.85710 24.52300 47.06970 21.69700
112 0.000000 85.71430 57.14290 26.97520 48.44310 34.95470
113 0.000000 85.71430 71.42860 29.89490 49.98820 51.76480
114 0.000000 85.71430 85.71430 34.14860 52.57330 74.81720
115 0.000000 85.71430 100.0000 39.55390 55.78340 104.6480
116 0.000000 100.0000 0.000000 31.52000 65.88160 9.641090
117 0.000000 100.0000 14.28570 31.80070 65.98000 11.48980
118 0.000000 100.0000 28.57140 32.60610 66.31840 16.27780
119 0.000000 100.0000 42.85710 34.21990 67.30020 24.70800
120 0.000000 100.0000 57.14290 36.60110 68.53720 37.68320
121 0.000000 100.0000 71.42860 39.60330 70.13700 54.76460
122 0.000000 100.0000 85.71430 43.73000 72.58390 77.27350
123 0.000000 100.0000 100.0000 49.30050 75.90330 107.6470
124 7.142860 7.142860 21.42860 1.238760 0.982690 3.879680
125 7.142860 7.142860 35.71430 2.348070 1.567950 9.947290
126 7.142860 7.142860 50.00000 4.354700 2.647520 20.90990
127 7.142860 7.142860 64.28570 7.059460 4.139720 35.66160
128 7.142860 7.142860 78.57140 10.85600 6.308610 56.40610
129 7.142860 7.142860 92.85710 15.35130 8.997590 80.81380
130 7.142860 21.42860 7.142860 1.660670 2.807340 1.100250
131 7.142860 21.42860 21.42860 2.228490 3.101220 4.198000
132 7.142860 21.42860 35.71430 3.378300 3.733000 10.38380
133 7.142860 21.42860 50.00000 5.360820 4.795200 21.20450
134 7.142860 21.42860 64.28570 8.097560 6.278080 36.09880
135 7.142860 21.42860 78.57140 11.75700 8.443610 56.30240
136 7.142860 21.42860 92.85710 16.33620 11.13510 81.11600
137 7.142860 35.71430 7.142860 3.689540 7.113360 1.765950
138 7.142860 35.71430 21.42860 4.264460 7.411830 4.895340
139 7.142860 35.71430 35.71430 5.379940 7.990820 11.01090
140 7.142860 35.71430 50.00000 7.406480 9.083320 22.04470
141 7.142860 35.71430 64.28570 10.06090 10.53990 36.43190
142 7.142860 35.71430 78.57140 13.84000 12.69270 57.04070
143 7.142860 35.71430 92.85710 18.34990 15.37340 81.85470
144 7.142860 50.00000 7.142860 7.188180 14.53890 2.881610
145 7.142860 50.00000 21.42860 7.748070 14.86200 6.049730
146 7.142860 50.00000 35.71430 8.899540 15.44940 12.17550
147 7.142860 50.00000 50.00000 10.90410 16.48080 23.08280
148 7.142860 50.00000 64.28570 13.62740 18.00440 38.03020
149 7.142860 50.00000 78.57140 17.36940 20.16340 58.36840
150 7.142860 50.00000 92.85710 21.85620 22.84540 83.04720
151 7.142860 64.28570 7.142860 11.87460 24.44460 4.324490
152 7.142860 64.28570 21.42860 12.45200 24.68620 7.509440
153 7.142860 64.28570 35.71430 13.56230 25.16800 13.67140
154 7.142860 64.28570 50.00000 15.52840 26.22830 24.57850
155 7.142860 64.28570 64.28570 18.14020 27.69640 39.11950
156 7.142860 64.28570 78.57140 21.91120 29.85630 59.59300
157 7.142860 64.28570 92.85710 26.56310 32.64750 84.81450
158 7.142860 78.57140 7.142860 18.15540 37.57850 6.235690
159 7.142860 78.57140 21.42860 18.78010 37.92580 9.413070
160 7.142860 78.57140 35.71430 19.95960 38.64820 15.62010
161 7.142860 78.57140 50.00000 21.92640 39.70850 26.53020
162 7.142860 78.57140 64.28570 24.63540 41.14950 41.34550
163 7.142860 78.57140 78.57140 28.24970 43.09620 61.54540
164 7.142860 78.57140 92.85710 32.97070 46.02380 87.03980
165 7.142860 92.85710 7.142860 26.65390 55.34480 8.732170
166 7.142860 92.85710 21.42860 27.26240 55.63950 11.94820
167 7.142860 92.85710 35.71430 28.42500 56.30920 18.19070
168 7.142860 92.85710 50.00000 30.36840 57.36880 28.99140
169 7.142860 92.85710 64.28570 33.09810 58.81050 43.90350
170 7.142860 92.85710 78.57140 36.68350 60.75630 63.96810
171 7.142860 92.85710 92.85710 41.35570 63.65240 89.05570
172 14.28570 0.000000 0.000000 0.974915 0.582838 0.211343
173 14.28570 0.000000 14.28570 1.297880 0.749600 1.885420
174 14.28570 0.000000 28.57140 2.160170 1.201080 6.514290
175 14.28570 0.000000 42.85710 3.698700 2.017350 14.86510
176 14.28570 0.000000 57.14290 6.092910 3.330920 27.92890
177 14.28570 0.000000 71.42860 9.191940 5.100070 44.87700
178 14.28570 0.000000 85.71430 13.42620 7.544290 67.92700
179 14.28570 0.000000 100.0000 18.86680 10.92150 97.35420
180 14.28570 14.28570 0.000000 1.524760 1.766780 0.394827
181 14.28570 14.28570 28.57140 2.718590 2.382940 6.763480
182 14.28570 14.28570 42.85710 4.265860 3.206580 15.12370
183 14.28570 14.28570 57.14290 6.691100 4.529770 28.35260
184 14.28570 14.28570 71.42860 9.755880 6.293330 45.16530
185 14.28570 14.28570 85.71430 13.96060 8.731180 67.94440
186 14.28570 14.28570 100.0000 19.54010 12.15030 98.31990
187 14.28570 28.57140 0.000000 2.997350 4.899010 0.872008
188 14.28570 28.57140 14.28570 3.326890 5.053070 2.596950
189 14.28570 28.57140 28.57140 4.208690 5.531440 7.288440
190 14.28570 28.57140 42.85710 5.739810 6.344630 15.65380
191 14.28570 28.57140 57.14290 8.095180 7.651090 28.53380
192 14.28570 28.57140 71.42860 11.21570 9.398130 45.61690
193 14.28570 28.57140 85.71430 15.53630 11.87850 68.93780
194 14.28570 28.57140 100.0000 21.00110 15.28520 98.77190
195 14.28570 42.85710 0.000000 5.678710 10.56190 1.725760
196 14.28570 42.85710 14.28570 5.978740 10.69710 3.455470
197 14.28570 42.85710 28.57140 6.890990 11.15560 8.162950
198 14.28570 42.85710 42.85710 8.429830 11.97880 16.58620
199 14.28570 42.85710 57.14290 10.74400 13.24370 29.42770
200 14.28570 42.85710 71.42860 13.96560 15.08080 46.78260
201 14.28570 42.85710 85.71430 18.03870 17.47400 69.15540
202 14.28570 42.85710 100.0000 23.51790 20.84280 98.98870
203 14.28570 57.14290 0.000000 9.905520 19.43780 3.043350
204 14.28570 57.14290 14.28570 10.21640 19.64140 4.804400
205 14.28570 57.14290 28.57140 11.11830 20.10910 9.520300
206 14.28570 57.14290 42.85710 12.59030 20.90810 17.92480
207 14.28570 57.14290 57.14290 15.02750 22.19890 31.04750
208 14.28570 57.14290 71.42860 18.14190 23.92850 48.13020
209 14.28570 57.14290 85.71430 22.30670 26.34670 70.63820
210 14.28570 57.14290 100.0000 27.91300 29.85350 101.0150
211 14.28570 71.42860 0.000000 15.36230 31.01290 4.716860
212 14.28570 71.42860 14.28570 15.73950 31.24060 6.494280
213 14.28570 71.42860 28.57140 16.56600 31.54970 11.20120
214 14.28570 71.42860 42.85710 18.13430 32.47800 19.53330
215 14.28570 71.42860 57.14290 20.49440 33.69220 32.70400
216 14.28570 71.42860 71.42860 23.55520 35.36800 49.65070
217 14.28570 71.42860 85.71430 27.92530 38.03090 72.83910
218 14.28570 71.42860 100.0000 33.18580 41.23670 101.9940
219 14.28570 85.71430 0.000000 22.63760 46.29210 6.876780
220 14.28570 85.71430 14.28570 23.03340 46.43830 8.676200
221 14.28570 85.71430 28.57140 23.79970 46.72330 13.39570
222 14.28570 85.71430 42.85710 25.31320 47.54580 21.70030
223 14.28570 85.71430 57.14290 27.82780 48.94320 34.95600
224 14.28570 85.71430 71.42860 30.71850 50.48740 51.63070
225 14.28570 85.71430 85.71430 34.96600 52.96020 74.41000
226 14.28570 85.71430 100.0000 40.63940 56.43910 104.9210
227 14.28570 100.0000 0.000000 32.22790 66.28090 9.668080
228 14.28570 100.0000 14.28570 32.74030 66.63910 11.55430
229 14.28570 100.0000 28.57140 33.51510 66.92440 16.31370
230 14.28570 100.0000 42.85710 35.11910 67.85380 24.81230
231 14.28570 100.0000 57.14290 37.45370 69.03730 37.68450
232 14.28570 100.0000 71.42860 40.71540 71.00980 55.17710
233 14.28570 100.0000 85.71430 44.67440 73.10890 77.40990
234 14.28570 100.0000 100.0000 50.12040 76.52890 106.9730
235 21.42860 7.142860 7.142860 2.201400 1.488560 0.821151
236 21.42860 7.142860 21.42860 2.772220 1.783710 3.909530
237 21.42860 7.142860 35.71430 3.917640 2.391610 10.03090
238 21.42860 7.142860 50.00000 5.910840 3.473750 20.85610
239 21.42860 7.142860 64.28570 8.647620 4.974160 35.79770
240 21.42860 7.142860 78.57140 12.43600 7.139690 56.40670
241 21.42860 7.142860 92.85710 17.10920 9.879980 81.49140
242 21.42860 21.42860 7.142860 3.213370 3.645630 1.156990
243 21.42860 21.42860 35.71430 4.941810 4.558090 10.39910
244 21.42860 21.42860 50.00000 6.941330 5.635700 21.27900
245 21.42860 21.42860 64.28570 9.666640 7.120150 36.09970
246 21.42860 21.42860 78.57140 13.45880 9.271710 56.70840
247 21.42860 21.42860 92.85710 18.07520 12.06400 81.65910
248 21.42860 35.71430 7.142860 5.256400 7.970520 1.820780
249 21.42860 35.71430 21.42860 5.844160 8.261440 4.975770
250 21.42860 35.71430 35.71430 6.977270 8.855810 11.12490
251 21.42860 35.71430 50.00000 8.973780 9.935200 21.95230
252 21.42860 35.71430 64.28570 11.71090 11.44480 36.83980
253 21.42860 35.71430 78.57140 15.42730 13.56090 57.04190
254 21.42860 35.71430 92.85710 20.07000 16.38180 82.39950
255 21.42860 50.00000 7.142860 8.729400 15.38550 2.934220
256 21.42860 50.00000 21.42860 9.324100 15.67980 6.085700
257 21.42860 50.00000 35.71430 10.50070 16.32000 12.21440
258 21.42860 50.00000 50.00000 12.47520 17.29840 23.09570
259 21.42860 50.00000 64.28570 15.10900 18.81930 37.62480
260 21.42860 50.00000 78.57140 18.96250 21.03380 58.36960
261 21.42860 50.00000 92.85710 23.48310 23.73900 82.91290
262 21.42860 64.28570 7.142860 13.40320 25.15670 4.367480
263 21.42860 64.28570 21.42860 13.99130 25.53280 7.553080
264 21.42860 64.28570 35.71430 15.06510 26.04350 13.72390
265 21.42860 64.28570 50.00000 17.15670 27.15180 24.62990
266 21.42860 64.28570 64.28570 19.90340 28.69830 39.39270
267 21.42860 64.28570 78.57140 23.56710 30.75070 59.59410
268 21.42860 64.28570 92.85710 28.19490 33.56340 84.40950
269 21.42860 78.57140 7.142860 19.69550 38.42520 6.283230
270 21.42860 78.57140 21.42860 20.37050 38.87820 9.466560
271 21.42860 78.57140 35.71430 21.56630 39.51900 15.68480
272 21.42860 78.57140 50.00000 23.53130 40.57920 26.58680
273 21.42860 78.57140 64.28570 26.20380 41.96700 41.34600
274 21.42860 78.57140 78.57140 29.86750 44.01950 61.54730
275 21.42860 78.57140 92.85710 34.54890 46.88590 86.49880
276 21.42860 92.85710 7.142860 28.19670 56.19150 8.791960
277 21.42860 92.85710 21.42860 28.83450 56.53920 12.03050
278 21.42860 92.85710 35.71430 30.01220 57.12730 18.27860
279 21.42860 92.85710 50.00000 31.96570 58.18720 29.12710
280 21.42860 92.85710 64.28570 34.63320 59.67910 43.63410
281 21.42860 92.85710 78.57140 38.50650 61.92420 64.65050
282 21.42860 92.85710 92.85710 42.93340 64.44020 88.92000
283 28.57140 0.000000 0.000000 3.138420 1.707090 0.274003
284 28.57140 0.000000 14.28570 3.504590 1.896270 1.965900
285 28.57140 0.000000 28.57140 4.377530 2.350630 6.604170
286 28.57140 0.000000 42.85710 5.902790 3.173300 14.88990
287 28.57140 0.000000 57.14290 8.277590 4.481770 27.79420
288 28.57140 0.000000 71.42860 11.41790 6.260830 44.87760
289 28.57140 0.000000 85.71430 15.79260 8.733460 68.33350
290 28.57140 0.000000 100.0000 21.32520 12.14870 98.16710
291 28.57140 14.28570 0.000000 3.686810 2.898050 0.458720
292 28.57140 14.28570 14.28570 4.056990 3.089790 2.180590
293 28.57140 14.28570 28.57140 4.935930 3.554830 6.851950
294 28.57140 14.28570 42.85710 6.479410 4.367240 15.19200
295 28.57140 14.28570 57.14290 8.877860 5.689760 28.21800
296 28.57140 14.28570 71.42860 11.97380 7.461950 45.16620
297 28.57140 14.28570 85.71430 16.25300 9.922060 67.94490
298 28.57140 14.28570 100.0000 21.88150 13.38380 98.45630
299 28.57140 28.57140 0.000000 5.170410 6.050940 0.939042
300 28.57140 28.57140 14.28570 5.514130 6.205670 2.665390
301 28.57140 28.57140 42.85710 7.955620 7.514380 15.72110
302 28.57140 28.57140 57.14290 10.36880 8.811330 28.80510
303 28.57140 28.57140 71.42860 13.46890 10.58510 45.61770
304 28.57140 28.57140 85.71430 17.63660 12.99410 68.26100
305 28.57140 28.57140 100.0000 23.19410 16.46950 98.23110
306 28.57140 42.85710 0.000000 7.832740 11.73530 1.796660
307 28.57140 42.85710 14.28570 8.219740 11.88120 3.554710
308 28.57140 42.85710 28.57140 9.075400 12.37750 8.233940
309 28.57140 42.85710 42.85710 10.63570 13.17130 16.57810
310 28.57140 42.85710 57.14290 12.95190 14.43630 29.42910
311 28.57140 42.85710 71.42860 16.15370 16.24280 46.51250
312 28.57140 42.85710 85.71430 20.44070 18.77670 69.83480
313 28.57140 42.85710 100.0000 25.82250 22.08260 98.85450
314 28.57140 57.14290 0.000000 12.03950 20.55390 3.107740
315 28.57140 57.14290 14.28570 12.41750 20.78170 4.888500
316 28.57140 57.14290 28.57140 13.28760 21.19630 9.570320
317 28.57140 57.14290 42.85710 14.73900 21.99470 17.87890
318 28.57140 57.14290 57.14290 17.27350 23.36270 31.04790
319 28.57140 57.14290 71.42860 20.30530 25.03770 47.85940
320 28.57140 57.14290 85.71430 24.57740 27.56330 70.63940
321 28.57140 57.14290 100.0000 30.25080 31.04220 101.1510
322 28.57140 71.42860 0.000000 17.53340 32.10010 4.775560
323 28.57140 71.42860 14.28570 17.93640 32.38080 6.558840
324 28.57140 71.42860 28.57140 18.82110 32.79580 11.30870
325 28.57140 71.42860 42.85710 20.33980 33.61840 19.63810
326 28.57140 71.42860 57.14290 22.74050 34.85600 32.70440
