CTI3   

ORIGINATOR "Argyll dispread"
KEYWORD "USE_BLACK_POINT_COMPENSATION"
USE_BLACK_POINT_COMPENSATION "NO"
CREATED "Fri Sep 27 20:32:02 2013"
KEYWORD "TARGET_INSTRUMENT"
TARGET_INSTRUMENT "Xrite i1 DisplayPro, ColorMunki Display"
KEYWORD "DISPLAY_TYPE_REFRESH"
DISPLAY_TYPE_REFRESH "NO"
KEYWORD "COMP_GREY_STEPS"
COMP_GREY_STEPS "57"
KEYWORD "LUMINANCE_XYZ_CDM2"
LUMINANCE_XYZ_CDM2 "132.142115 139.212981 151.245889"
KEYWORD "VIDEO_LUT_CALIBRATION_POSSIBLE"
VIDEO_LUT_CALIBRATION_POSSIBLE "YES"
KEYWORD "SINGLE_DIM_STEPS"
SINGLE_DIM_STEPS "0"
DESCRIPTOR "Argyll Calibration Target chart information 3"

BEGIN_ARGYLL_COLPROF_ARGS
-v -qh -al -C "No copyright. Created with dispcalGUI 0.0.0.0 and Argyll CMS 1.6.0" -M "DELL 2407WFP" -A "Dell"
END_ARGYLL_COLPROF_ARGS

KEYWORD "DEVICE_CLASS"
DEVICE_CLASS "DISPLAY"
KEYWORD "NORMALIZED_TO_Y_100"
NORMALIZED_TO_Y_100 "YES"
KEYWORD "DISPLAY_TYPE_BASE_ID"
DISPLAY_TYPE_BASE_ID "1"
KEYWORD "INSTRUMENT_TYPE_SPECTRAL"
INSTRUMENT_TYPE_SPECTRAL "NO"
KEYWORD "COLOR_REP"
COLOR_REP "RGB_XYZ"

NUMBER_OF_FIELDS 7
BEGIN_DATA_FORMAT
SAMPLE_ID RGB_R RGB_G RGB_B XYZ_X XYZ_Y XYZ_Z
END_DATA_FORMAT

NUMBER_OF_SETS 912
BEGIN_DATA
1 100.0000 100.0000 100.0000 94.92080 100.0000 108.6440
2 100.0000 100.0000 100.0000 94.97020 100.1060 108.6450
3 100.0000 100.0000 100.0000 95.42690 100.4470 109.3250
4 100.0000 100.0000 100.0000 94.94550 100.0530 108.6440
5 0.000000 0.000000 0.000000 0.174997 0.160917 0.174098
6 1.785700 1.785700 1.785700 0.257644 0.253376 0.270588
7 3.571400 3.571400 3.571400 0.364228 0.363815 0.393716
8 5.357100 5.357100 5.357100 0.532049 0.550560 0.582455
9 7.142900 7.142900 7.142900 0.706389 0.734698 0.785404
10 8.928600 8.928600 8.928600 0.919301 0.959638 1.041840
11 10.71400 10.71400 10.71400 1.117740 1.158870 1.292440
12 12.50000 12.50000 12.50000 1.490450 1.525880 1.622540
13 14.28600 14.28600 14.28600 1.810750 1.857360 2.007980
14 16.07100 16.07100 16.07100 2.235190 2.344230 2.481590
15 17.85700 17.85700 17.85700 2.734170 2.924410 3.088530
16 19.64300 19.64300 19.64300 3.210360 3.354980 3.581850
17 21.42900 21.42900 21.42900 3.808790 3.963480 4.310120
18 23.21400 23.21400 23.21400 4.445990 4.631720 4.954690
19 25.00000 25.00000 25.00000 4.994950 5.276690 5.563780
20 26.78600 26.78600 26.78600 5.559080 5.830010 6.288040
21 28.57100 28.57100 28.57100 6.564240 6.782030 7.402000
22 30.35700 30.35700 30.35700 7.151660 7.594460 8.054020
23 32.14300 32.14300 32.14300 7.942800 8.326110 8.993580
24 33.92900 33.92900 33.92900 9.022840 9.582230 10.01000
25 35.71400 35.71400 35.71400 9.953720 10.43960 11.21850
26 37.50000 37.50000 37.50000 10.90670 11.50690 12.50220
27 39.28600 39.28600 39.28600 11.99960 12.62660 13.44960
28 41.07100 41.07100 41.07100 13.09840 13.81350 14.82490
29 42.85700 42.85700 42.85700 14.22720 14.83700 16.21060
30 44.64300 44.64300 44.64300 15.71790 16.49710 17.91300
31 46.42900 46.42900 46.42900 17.00740 17.78620 19.47710
32 48.21400 48.21400 48.21400 18.68960 19.60080 21.25830
33 50.00000 50.00000 50.00000 20.31160 21.44350 22.93770
34 51.78600 51.78600 51.78600 21.85470 22.99320 24.64090
35 53.57100 53.57100 53.57100 23.92950 25.15460 27.27550
36 55.35700 55.35700 55.35700 25.37750 26.70920 29.00790
37 57.14300 57.14300 57.14300 27.40620 28.89930 31.60620
38 58.92900 58.92900 58.92900 28.92260 30.53020 33.24970
39 60.71400 60.71400 60.71400 31.19400 32.92050 35.57820
40 62.50000 62.50000 62.50000 32.91670 34.48990 37.35410
41 64.28600 64.28600 64.28600 35.09200 36.90730 39.41290
42 66.07100 66.07100 66.07100 37.22110 39.01820 42.41550
43 67.85700 67.85700 67.85700 39.41620 41.46620 44.74590
44 69.64300 69.64300 69.64300 41.93550 44.02040 47.88870
45 71.42900 71.42900 71.42900 43.92590 46.23930 50.48790
46 73.21400 73.21400 73.21400 46.72180 49.01690 53.22550
47 75.00000 75.00000 75.00000 48.88970 51.17340 55.82180
48 76.78600 76.78600 76.78600 51.34000 54.04620 58.42890
49 78.57100 78.57100 78.57100 54.08600 56.64370 61.57040
50 80.35700 80.35700 80.35700 56.37990 59.24460 65.25870
51 82.14300 82.14300 82.14300 59.28560 62.36840 68.00180
52 83.92900 83.92900 83.92900 62.53660 65.71910 72.37300
53 85.71400 85.71400 85.71400 66.19250 69.57990 76.07200
54 87.50000 87.50000 87.50000 69.33300 73.02370 79.22580
55 89.28600 89.28600 89.28600 72.87120 76.65810 83.59960
56 91.07100 91.07100 91.07100 76.02110 80.07220 86.61710
57 92.85700 92.85700 92.85700 79.78420 84.04050 90.58830
58 94.64300 94.64300 94.64300 82.69880 87.45670 94.69280
59 96.42900 96.42900 96.42900 87.18980 91.89280 99.61510
60 98.21400 98.21400 98.21400 91.21130 96.08540 104.8080
61 0.000000 0.000000 14.28570 0.469264 0.312525 1.781440
62 0.000000 0.000000 28.57140 1.342120 0.768590 6.550920
63 0.000000 0.000000 42.85710 2.797740 1.543500 14.50590
64 0.000000 0.000000 57.14290 5.303370 2.920870 28.20750
65 0.000000 0.000000 71.42860 8.449650 4.690310 45.43090
66 0.000000 0.000000 85.71430 12.67660 7.193330 68.62390
67 0.000000 0.000000 100.0000 18.12480 10.53380 98.19390
68 0.000000 14.28570 0.000000 0.690686 1.261060 0.344191
69 0.000000 14.28570 14.28570 0.987779 1.407260 1.989790
70 0.000000 14.28570 28.57140 1.872840 1.876140 6.816380
71 0.000000 14.28570 42.85710 3.329100 2.652780 14.78660
72 0.000000 14.28570 57.14290 5.831880 4.035180 28.49470
73 0.000000 14.28570 71.42860 8.918500 5.786080 45.44720
74 0.000000 14.28570 85.71430 13.21110 8.322910 68.91140
75 0.000000 14.28570 100.0000 18.64540 11.63530 98.34530
76 0.000000 28.57140 0.000000 2.183940 4.434380 0.827897
77 0.000000 28.57140 14.28570 2.478310 4.570290 2.485000
78 0.000000 28.57140 28.57140 3.368600 5.050030 7.291190
79 0.000000 28.57140 42.85710 4.822300 5.827430 15.29630
80 0.000000 28.57140 57.14290 7.300230 7.202380 28.94740
81 0.000000 28.57140 71.42860 10.48080 8.936540 46.30550
82 0.000000 28.57140 85.71430 14.75190 11.46230 69.36290
83 0.000000 28.57140 100.0000 20.11720 14.81850 98.79830
84 0.000000 42.85710 0.000000 4.709390 9.791370 1.635170
85 0.000000 42.85710 14.28570 5.014250 9.929230 3.315690
86 0.000000 42.85710 28.57140 5.939310 10.36120 8.132460
87 0.000000 42.85710 42.85710 7.351120 11.16730 16.14050
88 0.000000 42.85710 57.14290 9.857650 12.48530 29.83660
89 0.000000 42.85710 71.42860 12.95940 14.29700 46.92570
90 0.000000 42.85710 85.71430 17.28080 16.78050 70.52410
91 0.000000 42.85710 100.0000 22.61670 20.14580 99.68890
92 0.000000 57.14290 0.000000 9.200230 19.26010 3.032980
93 0.000000 57.14290 14.28570 9.483840 19.32860 4.716220
94 0.000000 57.14290 28.57140 10.31880 19.80230 9.592600
95 0.000000 57.14290 42.85710 11.80460 20.51200 17.52420
96 0.000000 57.14290 57.14290 14.32610 21.94770 31.46460
97 0.000000 57.14290 71.42860 17.35870 23.62320 48.28050
98 0.000000 57.14290 85.71430 21.70050 26.21150 71.74520
99 0.000000 57.14290 100.0000 27.11840 29.55720 101.5870
100 0.000000 71.42860 0.000000 14.61970 30.65070 4.690010
101 0.000000 71.42860 14.28570 14.95630 30.82510 6.391720
102 0.000000 71.42860 28.57140 15.82580 31.26980 11.25040
103 0.000000 71.42860 42.85710 17.31120 32.14380 19.31010
104 0.000000 71.42860 57.14290 19.81920 33.49700 33.12230
105 0.000000 71.42860 71.42860 22.80250 35.06660 49.93670
106 0.000000 71.42860 85.71430 27.11530 37.65410 73.26610
107 0.000000 71.42860 100.0000 32.69840 41.10900 103.6500
108 0.000000 85.71430 0.000000 21.95750 45.95800 6.839520
109 0.000000 85.71430 14.28570 22.27660 46.07980 8.574100
110 0.000000 85.71430 28.57140 23.18340 46.57770 13.49230
111 0.000000 85.71430 42.85710 24.64580 47.39880 21.55890
112 0.000000 85.71430 57.14290 27.04730 48.64460 35.10270
113 0.000000 85.71430 71.42860 30.24090 50.48130 52.32700
114 0.000000 85.71430 85.71430 34.42110 52.83400 75.78880
115 0.000000 85.71430 100.0000 39.70340 56.14560 104.8170
116 0.000000 100.0000 0.000000 31.65020 66.16380 9.639980
117 0.000000 100.0000 14.28570 31.86600 66.15600 11.41450
118 0.000000 100.0000 28.57140 32.78660 66.57230 16.33270
119 0.000000 100.0000 42.85710 34.23890 67.34090 24.46640
120 0.000000 100.0000 57.14290 36.69360 68.61040 37.96480
121 0.000000 100.0000 71.42860 39.84460 70.52790 55.05550
122 0.000000 100.0000 85.71430 44.13650 72.93620 78.92400
123 0.000000 100.0000 100.0000 49.38780 76.08260 107.6790
124 7.142860 7.142860 21.42860 1.281680 1.033800 3.912750
125 7.142860 7.142860 35.71430 2.413290 1.630260 10.06400
126 7.142860 7.142860 50.00000 4.326580 2.660890 20.49070
127 7.142860 7.142860 64.28570 7.100220 4.191570 35.67180
128 7.142860 7.142860 78.57140 10.61000 6.255090 54.93120
129 7.142860 7.142860 92.85710 15.47530 9.135370 81.37950
130 7.142860 21.42860 7.142860 1.704550 2.859280 1.114980
131 7.142860 21.42860 21.42860 2.281930 3.157610 4.260720
132 7.142860 21.42860 35.71430 3.420110 3.767970 10.42540
133 7.142860 21.42860 50.00000 5.350450 4.796580 20.93630
134 7.142860 21.42860 64.28570 8.101730 6.320490 35.97380
135 7.142860 21.42860 78.57140 11.66740 8.402540 55.50420
136 7.142860 21.42860 92.85710 16.49140 11.28540 81.68160
137 7.142860 35.71430 7.142860 3.749890 7.183210 1.781700
138 7.142860 35.71430 21.42860 4.328980 7.482040 4.978380
139 7.142860 35.71430 35.71430 5.451540 8.070010 11.09460
140 7.142860 35.71430 50.00000 7.354350 9.087040 21.50610
141 7.142860 35.71430 64.28570 10.13610 10.59350 36.71320
142 7.142860 35.71430 78.57140 13.69440 12.66700 56.10790
143 7.142860 35.71430 92.85710 18.48190 15.51560 82.42070
144 7.142860 50.00000 7.142860 7.254270 14.56690 2.888320
145 7.142860 50.00000 21.42860 7.819510 14.89030 6.081510
146 7.142860 50.00000 35.71430 8.910200 15.45380 12.21730
147 7.142860 50.00000 50.00000 10.84350 16.45330 22.61290
148 7.142860 50.00000 64.28570 13.60220 18.00840 37.90520
149 7.142860 50.00000 78.57140 17.14040 19.99760 57.16290
150 7.142860 50.00000 92.85710 22.10500 22.99320 84.15470
151 7.142860 64.28570 7.142860 12.04790 24.68710 4.368210
152 7.142860 64.28570 21.42860 12.65660 24.98180 7.585530
153 7.142860 64.28570 35.71430 13.77960 25.59850 13.75750
154 7.142860 64.28570 50.00000 15.67350 26.57470 24.26310
155 7.142860 64.28570 64.28570 18.40530 28.15100 39.13610
156 7.142860 64.28570 78.57140 22.10390 30.22720 59.20750
157 7.142860 64.28570 92.85710 26.77190 33.02750 84.97810
158 7.142860 78.57140 7.142860 18.21580 37.61250 6.202910
159 7.142860 78.57140 21.42860 18.80130 37.85440 9.425990
160 7.142860 78.57140 35.71430 19.89490 38.50010 15.64020
161 7.142860 78.57140 50.00000 21.79940 39.39450 26.13000
162 7.142860 78.57140 64.28570 24.54830 40.97140 41.08290
163 7.142860 78.57140 78.57140 28.03230 42.83250 60.60990
164 7.142860 78.57140 92.85710 32.89020 45.79500 86.92410
165 7.142860 92.85710 7.142860 26.85180 55.64850 8.759230
166 7.142860 92.85710 21.42860 27.46140 56.02530 12.04530
167 7.142860 92.85710 35.71430 28.58500 56.50770 18.26980
168 7.142860 92.85710 50.00000 30.48940 57.58850 28.59520
169 7.142860 92.85710 64.28570 33.31780 59.16780 43.91990
170 7.142860 92.85710 78.57140 36.71920 60.97430 63.17540
171 7.142860 92.85710 92.85710 41.57720 63.93670 89.48970
172 14.28570 0.000000 0.000000 0.970837 0.574690 0.198580
173 14.28570 0.000000 14.28570 1.284810 0.736498 1.789270
174 14.28570 0.000000 28.57140 2.168300 1.197140 6.546900
175 14.28570 0.000000 42.85710 3.629970 1.974560 14.48690
176 14.28570 0.000000 57.14290 6.118830 3.358190 28.07230
177 14.28570 0.000000 71.42860 9.319580 5.125380 45.43080
178 14.28570 0.000000 85.71430 13.53360 7.640020 68.48860
179 14.28570 0.000000 100.0000 19.13950 11.04490 98.87180
180 14.28570 14.28570 0.000000 1.492900 1.698890 0.372806
181 14.28570 14.28570 28.57140 2.704410 2.327960 6.806590
182 14.28570 14.28570 42.85710 4.163630 3.101450 14.72710
183 14.28570 14.28570 57.14290 6.676110 4.488770 28.49520
184 14.28570 14.28570 71.42860 9.814010 6.246700 45.58290
185 14.28570 14.28570 85.71430 14.17460 8.800810 69.18240
186 14.28570 14.28570 100.0000 19.55140 12.15590 98.34650
187 14.28570 28.57140 0.000000 3.002760 4.912070 0.861900
188 14.28570 28.57140 14.28570 3.317230 5.058580 2.507230
189 14.28570 28.57140 28.57140 4.224100 5.543040 7.310590
190 14.28570 28.57140 42.85710 5.678860 6.325260 15.28290
191 14.28570 28.57140 57.14290 8.213660 7.696980 29.08360
192 14.28570 28.57140 71.42860 11.28190 9.440590 45.90050
193 14.28570 28.57140 85.71430 15.68670 11.97350 69.63480
194 14.28570 28.57140 100.0000 21.03150 15.34220 98.79950
195 14.28570 42.85710 0.000000 5.557370 10.30540 1.676580
196 14.28570 42.85710 14.28570 5.898070 10.45710 3.339570
197 14.28570 42.85710 28.57140 6.770980 10.89420 8.168040
198 14.28570 42.85710 42.85710 8.188820 11.66180 16.14090
199 14.28570 42.85710 57.14290 10.75490 13.06900 30.11020
200 14.28570 42.85710 71.42860 13.82140 14.76760 46.79070
201 14.28570 42.85710 85.71430 18.10950 17.30210 70.11930
202 14.28570 42.85710 100.0000 23.69270 20.75710 100.5040
203 14.28570 57.14290 0.000000 10.03670 19.70770 3.072440
204 14.28570 57.14290 14.28570 10.30550 19.85790 4.751240
205 14.28570 57.14290 28.57140 11.23660 20.32660 9.603610
206 14.28570 57.14290 42.85710 12.68380 21.06510 17.53450
207 14.28570 57.14290 57.14290 15.24180 22.47200 31.46570
208 14.28570 57.14290 71.42860 18.29910 24.20030 48.28240
209 14.28570 57.14290 85.71430 22.66980 26.78960 71.88250
210 14.28570 57.14290 100.0000 28.06790 30.10460 101.4520
211 14.28570 71.42860 0.000000 15.46710 31.23290 4.730840
212 14.28570 71.42860 14.28570 15.81430 31.32550 6.417370
213 14.28570 71.42860 28.57140 16.74030 31.87620 11.31090
214 14.28570 71.42860 42.85710 18.14090 32.59120 19.31770
215 14.28570 71.42860 57.14290 20.65230 33.96670 32.85200
216 14.28570 71.42860 71.42860 23.87480 35.80420 50.21160
217 14.28570 71.42860 85.71430 28.05990 38.17930 73.40260
218 14.28570 71.42860 100.0000 33.51230 41.62240 102.7030
219 14.28570 85.71430 0.000000 22.85560 46.64610 6.888060
220 14.28570 85.71430 14.28570 23.15730 46.76730 8.541230
221 14.28570 85.71430 28.57140 24.00170 47.10690 13.51160
222 14.28570 85.71430 42.85710 25.50030 47.89910 21.56800
223 14.28570 85.71430 57.14290 27.94950 49.25060 35.10550
224 14.28570 85.71430 71.42860 31.16090 50.95350 52.46270
225 14.28570 85.71430 85.71430 35.36640 53.43350 75.51990
226 14.28570 85.71430 100.0000 40.88720 56.93870 105.4990
227 14.28570 100.0000 0.000000 32.43590 66.50560 9.671050
228 14.28570 100.0000 14.28570 32.76140 66.62750 11.43560
229 14.28570 100.0000 28.57140 33.64240 67.07260 16.34750
230 14.28570 100.0000 42.85710 35.14740 67.86500 24.43370
231 14.28570 100.0000 57.14290 37.53290 69.19230 37.96780
232 14.28570 100.0000 71.42860 40.76030 71.05220 55.05660
233 14.28570 100.0000 85.71430 44.97880 73.37610 78.51750
234 14.28570 100.0000 100.0000 50.39290 76.84810 107.8190
235 21.42860 7.142860 7.142860 2.219900 1.523490 0.828453
236 21.42860 7.142860 21.42860 2.803870 1.825860 3.951060
237 21.42860 7.142860 35.71430 3.947840 2.432400 10.07540
238 21.42860 7.142860 50.00000 5.873050 3.469800 20.55380
239 21.42860 7.142860 64.28570 8.650100 5.002200 35.67230
240 21.42860 7.142860 78.57140 12.25740 7.090640 55.33800
241 21.42860 7.142860 92.85710 17.12170 9.982800 81.37970
242 21.42860 21.42860 7.142860 3.220090 3.658720 1.161590
243 21.42860 21.42860 35.71430 4.952660 4.579600 10.42900
244 21.42860 21.42860 50.00000 6.872720 5.617970 20.89260
245 21.42860 21.42860 64.28570 9.646160 7.133990 35.97430
246 21.42860 21.42860 78.57140 13.23580 9.213820 55.50450
247 21.42860 21.42860 92.85710 18.19870 12.12540 82.08790
248 21.42860 35.71430 7.142860 5.263060 7.974610 1.823930
249 21.42860 35.71430 21.42860 5.858430 8.271760 4.990530
250 21.42860 35.71430 35.71430 6.990060 8.872770 11.15260
251 21.42860 35.71430 50.00000 8.920030 9.903000 21.61810
252 21.42860 35.71430 64.28570 11.69230 11.42680 36.44280
253 21.42860 35.71430 78.57140 15.30010 13.47850 56.37900
254 21.42860 35.71430 92.85710 20.13830 16.41030 82.42170
255 21.42860 50.00000 7.142860 8.731250 15.38970 2.932640
256 21.42860 50.00000 21.42860 9.331810 15.68420 6.111570
257 21.42860 50.00000 35.71430 10.49740 16.27210 12.30340
258 21.42860 50.00000 50.00000 12.37590 17.24780 22.73700
259 21.42860 50.00000 64.28570 15.20490 18.84930 37.77020
260 21.42860 50.00000 78.57140 18.82080 20.87080 57.57010
261 21.42860 50.00000 92.85710 23.65900 23.80270 83.61280
262 21.42860 64.28570 7.142860 13.58960 25.53400 4.421180
263 21.42860 64.28570 21.42860 14.22420 25.88170 7.644640
264 21.42860 64.28570 35.71430 15.29100 26.39230 13.78360
265 21.42860 64.28570 50.00000 17.23350 27.47430 24.28680
266 21.42860 64.28570 64.28570 20.02780 29.02250 39.27260
267 21.42860 64.28570 78.57140 23.58090 31.02000 59.07270
268 21.42860 64.28570 92.85710 28.45720 33.92300 85.11450
269 21.42860 78.57140 7.142860 19.67060 38.38250 6.257830
270 21.42860 78.57140 21.42860 20.22660 38.57140 9.457720
271 21.42860 78.57140 35.71430 21.46990 39.31810 15.66920
272 21.42860 78.57140 50.00000 23.43450 40.31850 26.21120
273 21.42860 78.57140 64.28570 26.03880 41.68250 40.94640
274 21.42860 78.57140 78.57140 29.81570 43.86530 61.15470
275 21.42860 78.57140 92.85710 34.52190 46.63680 86.92440
276 21.42860 92.85710 7.142860 28.44610 56.60120 8.828910
277 21.42860 92.85710 21.42860 29.01230 56.79040 12.07630
278 21.42860 92.85710 35.71430 30.17050 57.46020 18.29840
279 21.42860 92.85710 50.00000 32.12730 58.54260 28.86880
280 21.42860 92.85710 64.28570 34.69190 59.80110 43.64750
281 21.42860 92.85710 78.57140 38.33740 61.89780 63.17740
282 21.42860 92.85710 92.85710 43.30690 64.91570 89.89840
283 28.57140 0.000000 0.000000 3.265870 1.768220 0.265846
284 28.57140 0.000000 14.28570 3.610600 1.944040 1.855330
285 28.57140 0.000000 28.57140 4.512490 2.415860 6.594060
286 28.57140 0.000000 42.85710 5.977830 3.198510 14.55780
287 28.57140 0.000000 57.14290 8.499670 4.583690 28.20830
288 28.57140 0.000000 71.42860 11.62090 6.349930 45.16070
289 28.57140 0.000000 85.71430 16.08210 8.904500 69.16600
290 28.57140 0.000000 100.0000 21.50520 12.29540 98.33040
291 28.57140 14.28570 0.000000 3.782810 2.896060 0.440959
292 28.57140 14.28570 14.28570 4.133850 3.068880 2.070830
293 28.57140 14.28570 28.57140 5.045720 3.548010 6.863070
294 28.57140 14.28570 42.85710 6.525220 4.340060 14.82900
295 28.57140 14.28570 57.14290 9.098620 5.733000 28.76670
296 28.57140 14.28570 71.42860 12.13410 7.479630 45.44840
297 28.57140 14.28570 85.71430 16.53740 10.04730 68.91210
298 28.57140 14.28570 100.0000 22.04850 13.41580 98.34640
299 28.57140 28.57140 0.000000 5.290860 6.114100 0.932829
300 28.57140 28.57140 14.28570 5.643010 6.280810 2.573360
301 28.57140 28.57140 42.85710 8.050150 7.558120 15.41710
302 28.57140 28.57140 57.14290 10.57770 8.968780 29.08500
303 28.57140 28.57140 71.42860 13.70970 10.69150 46.03650
304 28.57140 28.57140 85.71430 18.02970 13.21790 69.63580
305 28.57140 28.57140 100.0000 23.48210 16.66110 98.93650
306 28.57140 42.85710 0.000000 7.838090 11.51370 1.746760
307 28.57140 42.85710 14.28570 8.195330 11.66720 3.416000
308 28.57140 42.85710 28.57140 9.053090 12.11150 8.219670
309 28.57140 42.85710 42.85710 10.60410 12.92740 16.22690
310 28.57140 42.85710 57.14290 13.09830 14.28030 29.97500
311 28.57140 42.85710 71.42860 16.26720 16.06410 47.19850
312 28.57140 42.85710 85.71430 20.53550 18.56810 70.25560
313 28.57140 42.85710 100.0000 26.18640 22.06940 100.3690
314 28.57140 57.14290 0.000000 12.25970 20.90110 3.141630
315 28.57140 57.14290 14.28570 12.65590 21.09940 4.828060
316 28.57140 57.14290 28.57140 13.51430 21.54380 9.634920
317 28.57140 57.14290 42.85710 15.03420 22.38880 17.67600
318 28.57140 57.14290 57.14290 17.54700 23.71220 31.33150
319 28.57140 57.14290 71.42860 20.74480 25.49690 48.69030
320 28.57140 57.14290 85.71430 24.92130 27.97590 71.61210
321 28.57140 57.14290 100.0000 30.60610 31.50040 101.5900
322 28.57140 71.42860 0.000000 17.75250 32.45030 4.797890
323 28.57140 71.42860 14.28570 18.21310 32.67280 6.491580
324 28.57140 71.42860 28.57140 19.02000 33.09340 11.35140
325 28.57140 71.42860 42.85710 20.59700 33.96230 19.36570
326 28.57140 71.42860 57.14290 23.09370 35.31520 33.12530
